function [moarRookle07ARamanData] = loadMoarRookle07ASolventRamanData()

%This is a "thick flake" after solvent washing, 5 second exposure 20
%accumulations

moarRookle07ARamanData = [
1683.5	4.06986
1682.56	4.04146
1681.63	3.99476
1680.69	3.94822
1679.75	3.96907
1678.82	3.84247
1677.88	4.03828
1676.94	4.1496
1676.01	4.04338
1675.07	4.10684
1674.13	3.83649
1673.19	3.99006
1672.26	4.10413
1671.32	4.21775
1670.38	4.14685
1669.44	4.07702
1668.5	4.12683
1667.56	4.2828
1666.63	3.9398
1665.69	4.12941
1664.75	4.06568
1663.81	4.08681
1662.87	3.91185
1661.93	4.09883
1660.99	4.08182
1660.05	3.91544
1659.11	4.06224
1658.18	4.06082
1657.24	4.02902
1656.3	4.31744
1655.36	4.0464
1654.42	4.03126
1653.48	4.22151
1652.54	4.0471
1651.6	3.95289
1650.66	4.0947
1649.72	3.99789
1648.78	3.92136
1647.83	4.1549
1646.89	4.17514
1645.95	4.12552
1645.01	4.07395
1644.07	3.78131
1643.13	4.11287
1642.19	4.0144
1641.25	3.97606
1640.31	3.9319
1639.37	3.95383
1638.42	4.06416
1637.48	3.87137
1636.54	4.01963
1635.6	4.03949
1634.66	4.12478
1633.72	4.03615
1632.77	4.11618
1631.83	3.87508
1630.89	4.1053
1629.95	3.97835
1629	4.11787
1628.06	3.93087
1627.12	4.01603
1626.17	3.88687
1625.23	3.67243
1624.29	3.77756
1623.34	3.9645
1622.4	4.00493
1621.45	4.07238
1620.51	4.1616
1619.57	3.99365
1618.62	4.05683
1617.68	3.89845
1616.74	4.02048
1615.79	3.9953
1614.85	3.80411
1613.9	4.39024
1612.96	4.04917
1612.01	3.84854
1611.07	4.01831
1610.12	3.94124
1609.18	3.79342
1608.23	4.06505
1607.29	3.97793
1606.34	4.2196
1605.4	3.9222
1604.45	3.96252
1603.51	3.89456
1602.56	3.97553
1601.61	3.88807
1600.67	3.99453
1599.72	3.87072
1598.78	4.06601
1597.83	3.99953
1596.88	3.88936
1595.94	4.09656
1594.99	3.7745
1594.04	3.76263
1593.1	3.9419
1592.15	4.11676
1591.2	4.11883
1590.25	3.94536
1589.31	3.87891
1588.36	3.87592
1587.41	4.08909
1586.47	3.87999
1585.52	4.05602
1584.57	3.82239
1583.62	3.69481
1582.67	3.99357
1581.73	4.16258
1580.78	4.13645
1579.83	3.76968
1578.88	3.92249
1577.93	4.0939
1576.98	3.97827
1576.03	3.75719
1575.08	3.94414
1574.13	3.81408
1573.19	3.88404
1572.24	3.91017
1571.29	4.10372
1570.34	3.86658
1569.39	3.96212
1568.44	3.76672
1567.49	3.91064
1566.54	4.05214
1565.59	3.92671
1564.64	3.80099
1563.69	4.0617
1562.74	3.9129
1561.78	3.90972
1560.84	3.85919
1559.88	3.83304
1558.93	3.79492
1557.98	4.05916
1557.03	3.92178
1556.08	4.04042
1555.13	4.25905
1554.18	4.10904
1553.23	3.7175
1552.27	4.23392
1551.32	3.8222
1550.37	4.05934
1549.42	4.0837
1548.47	3.71934
1547.51	3.91856
1546.56	4.09611
1545.61	3.77361
1544.66	3.71191
1543.7	3.82662
1542.75	3.87585
1541.8	3.83625
1540.84	3.84243
1539.89	4.03108
1538.94	3.84342
1537.99	3.99405
1537.03	4.16838
1536.08	3.88804
1535.12	4.00099
1534.17	3.93219
1533.22	4.19329
1532.26	3.8193
1531.31	4.01672
1530.35	3.75519
1529.4	3.93252
1528.45	3.69155
1527.49	3.98016
1526.54	3.87978
1525.58	4.04329
1524.63	4.09426
1523.67	3.92062
1522.72	3.87538
1521.76	3.83055
1520.81	3.89695
1519.85	3.87668
1518.9	3.74812
1517.94	4.01992
1516.98	3.87121
1516.03	3.98459
1515.07	3.91342
1514.12	4.02171
1513.16	3.93218
1512.2	3.80015
1511.25	3.8485
1510.29	3.78513
1509.33	4.03295
1508.38	4.0369
1507.42	3.9753
1506.46	4.00423
1505.51	3.90042
1504.55	3.83633
1503.59	3.85551
1502.63	3.87425
1501.68	3.87002
1500.72	3.88836
1499.76	3.97391
1498.8	3.95125
1497.84	3.86609
1496.88	4.05072
1495.93	3.81192
1494.97	3.92895
1494.01	3.88541
1493.05	3.95268
1492.09	3.92824
1491.13	4.06135
1490.17	3.88095
1489.22	3.97319
1488.26	4.00257
1487.3	4.00455
1486.34	3.95527
1485.38	3.93456
1484.42	3.853
1483.46	3.94419
1482.5	3.94322
1481.54	3.88087
1480.58	3.88885
1479.62	3.87418
1478.66	3.90381
1477.7	3.77245
1476.74	3.8432
1475.78	3.82468
1474.82	3.89532
1473.86	3.82439
1472.89	3.97715
1471.93	4.03083
1470.97	3.729
1470.01	3.84427
1469.05	3.82451
1468.09	4.02046
1467.13	3.6828
1466.16	3.85325
1465.2	3.77561
1464.24	3.99813
1463.28	3.79471
1462.32	3.84427
1461.35	3.82369
1460.39	3.98613
1459.43	3.79231
1458.47	3.79053
1457.5	3.90124
1456.54	3.92993
1455.58	4.06969
1454.61	3.91331
1453.65	3.8919
1452.69	3.58459
1451.72	3.94895
1450.76	3.88399
1449.8	4.02024
1448.83	3.83659
1447.87	3.9001
1446.91	3.98743
1445.94	3.80602
1444.98	3.81245
1444.01	3.84318
1443.05	3.77665
1442.08	3.70865
1441.12	3.68276
1440.15	3.99282
1439.19	3.9468
1438.23	3.90141
1437.26	3.8098
1436.29	3.9868
1435.33	3.89803
1434.36	3.8098
1433.4	4.014
1432.43	3.7923
1431.47	4.04061
1430.5	3.8173
1429.53	3.84891
1428.57	3.90472
1427.6	3.72636
1426.63	4.06591
1425.67	3.65554
1424.7	3.87633
1423.74	3.85628
1422.77	3.83752
1421.8	3.7879
1420.83	3.89457
1419.87	3.88922
1418.9	3.95135
1417.93	3.68761
1416.96	3.71764
1416	4.03437
1415.03	3.74147
1414.06	3.8569
1413.09	3.97293
1412.13	3.66257
1411.16	3.78194
1410.19	3.96161
1409.22	3.79928
1408.25	3.92707
1407.28	3.89873
1406.31	3.85439
1405.35	3.94678
1404.38	3.84079
1403.41	4.04957
1402.44	3.75557
1401.47	3.70996
1400.5	3.70811
1399.53	3.86307
1398.56	3.87811
1397.59	3.76228
1396.62	3.95271
1395.65	3.75626
1394.68	3.70922
1393.71	3.91062
1392.74	3.77211
1391.77	3.81778
1390.8	3.78286
1389.83	4.01834
1388.86	3.95341
1387.89	4.0664
1386.91	3.85094
1385.94	3.93154
1384.97	3.81221
1384	4.01424
1383.03	3.66713
1382.06	3.92457
1381.09	3.87021
1380.11	3.95481
1379.14	3.77681
1378.17	3.87062
1377.2	3.60334
1376.22	3.83462
1375.25	3.88483
1374.28	3.95365
1373.31	3.78445
1372.34	4.11885
1371.36	3.765
1370.39	3.99825
1369.41	3.74875
1368.44	4.00395
1367.47	3.80561
1366.5	3.94113
1365.52	3.86934
1364.55	3.95928
1363.57	3.93611
1362.6	3.86251
1361.63	3.78773
1360.65	3.70043
1359.68	3.70665
1358.7	4.00395
1357.73	3.68569
1356.75	3.66602
1355.78	3.85223
1354.8	4.03579
1353.83	4.15017
1352.85	3.62576
1351.88	3.92219
1350.9	3.83669
1349.93	3.93547
1348.95	3.90819
1347.98	3.92356
1347	3.76504
1346.03	3.88251
1345.05	3.81899
1344.07	3.91602
1343.1	3.85081
1342.12	3.83086
1341.14	3.64318
1340.17	3.93472
1339.19	3.69615
1338.21	3.73099
1337.24	3.78108
1336.26	3.67521
1335.28	3.87168
1334.31	4.00194
1333.33	3.91231
1332.35	3.8196
1331.37	4.07226
1330.39	3.63477
1329.42	3.64188
1328.44	3.81245
1327.46	3.77338
1326.48	3.86743
1325.51	4.00656
1324.53	3.79932
1323.55	3.96298
1322.57	3.80014
1321.59	3.79907
1320.61	3.78793
1319.63	4.05965
1318.65	3.91942
1317.67	3.89236
1316.69	3.77241
1315.72	3.9319
1314.74	4.0441
1313.76	3.80769
1312.78	3.71604
1311.8	3.83452
1310.82	3.72566
1309.84	3.87408
1308.86	3.75092
1307.87	3.64846
1306.89	3.99791
1305.91	3.88464
1304.93	3.8173
1303.95	3.81966
1302.97	3.80009
1301.99	3.78076
1301.01	3.90851
1300.03	3.85049
1299.05	4.13309
1298.07	4.10821
1297.08	4.01356
1296.1	3.82519
1295.12	4.03851
1294.14	3.6652
1293.16	3.97047
1292.17	3.8054
1291.19	3.75417
1290.21	3.77275
1289.22	3.98318
1288.24	3.72606
1287.26	3.89616
1286.28	3.78406
1285.29	3.87305
1284.31	4.17279
1283.33	4.12049
1282.34	3.76572
1281.36	3.87463
1280.38	3.81748
1279.39	3.87537
1278.41	4.05038
1277.42	4.04285
1276.44	3.84878
1275.46	4.02825
1274.47	3.92983
1273.49	3.82749
1272.5	3.98078
1271.52	3.86231
1270.53	4.04781
1269.55	3.8793
1268.56	3.73525
1267.58	3.59875
1266.59	3.85942
1265.61	3.95437
1264.62	4.04849
1263.64	3.85369
1262.65	3.89307
1261.67	3.77242
1260.68	3.862
1259.69	3.8641
1258.71	3.70363
1257.72	3.73351
1256.73	3.94889
1255.75	3.94062
1254.76	3.88635
1253.77	3.79015
1252.79	3.62468
1251.8	3.78686
1250.81	3.90234
1249.83	3.78402
1248.84	3.85294
1247.85	3.77056
1246.86	3.80022
1245.88	3.73409
1244.89	3.83314
1243.9	3.8165
1242.91	3.81466
1241.92	3.8545
1240.93	3.96629
1239.95	3.91591
1238.96	3.91356
1237.97	3.88868
1236.98	3.7763
1235.99	3.7368
1235	3.89872
1234.01	3.729
1233.02	4.1178
1232.03	4.15662
1231.04	3.87898
1230.06	4.14027
1229.07	3.84017
1228.08	3.93392
1227.09	3.81625
1226.09	3.97676
1225.11	4.39953
1224.11	4.03418
1223.12	4.01647
1222.13	3.95119
1221.14	4.14483
1220.15	4.03494
1219.16	4.13443
1218.17	4.16274
1217.18	4.16826
1216.19	3.93832
1215.2	3.84728
1214.21	4.01483
1213.21	4.07917
1212.22	4.13904
1211.23	4.13749
1210.24	4.06974
1209.25	3.91015
1208.25	4.05382
1207.26	4.10596
1206.27	4.08915
1205.28	3.95429
1204.28	3.84292
1203.29	4.02977
1202.3	3.8308
1201.3	3.75121
1200.31	3.93125
1199.32	3.96068
1198.32	4.04724
1197.33	4.12088
1196.34	4.06746
1195.34	4.09008
1194.35	4.0213
1193.36	3.96296
1192.36	4.0777
1191.37	3.96682
1190.37	3.94451
1189.38	4.05479
1188.38	3.96774
1187.39	3.94031
1186.4	3.91987
1185.4	4.16217
1184.4	4.12002
1183.41	4.19633
1182.42	3.93828
1181.42	3.95172
1180.42	4.01873
1179.43	3.90138
1178.43	4.01577
1177.44	3.91203
1176.44	4.0233
1175.45	3.80406
1174.45	4.01807
1173.45	3.89651
1172.45	3.98972
1171.46	3.98486
1170.46	4.00254
1169.47	3.93836
1168.47	3.85204
1167.47	3.7341
1166.47	4.09382
1165.48	3.85167
1164.48	4.01576
1163.48	3.94125
1162.48	4.17721
1161.49	4.08267
1160.49	4.03633
1159.49	3.92734
1158.49	3.74686
1157.49	3.87064
1156.5	4.04176
1155.5	4.13247
1154.5	3.98201
1153.5	4.12168
1152.5	3.90223
1151.5	3.92517
1150.5	4.04412
1149.5	3.97991
1148.5	4.22869
1147.51	4.0657
1146.51	3.80559
1145.51	4.01448
1144.51	4.05332
1143.51	4.16604
1142.51	3.84833
1141.51	4.06311
1140.51	4.01555
1139.51	3.94622
1138.5	3.94877
1137.5	4.23896
1136.5	4.07423
1135.5	3.95411
1134.5	3.85774
1133.5	4.05125
1132.5	3.93333
1131.5	4.17092
1130.5	4.19233
1129.49	3.90015
1128.49	3.88344
1127.49	4.01315
1126.49	3.99911
1125.49	4.22652
1124.49	3.98522
1123.48	3.93537
1122.48	3.93638
1121.48	3.74458
1120.48	3.98788
1119.47	3.98963
1118.47	4.13965
1117.47	4.21784
1116.46	4.09253
1115.46	3.96598
1114.46	4.06411
1113.45	4.06659
1112.45	3.91599
1111.44	3.76468
1110.44	4.12953
1109.44	4.01296
1108.43	4.01848
1107.43	3.903
1106.43	4.07001
1105.42	4.21137
1104.42	4.04208
1103.41	4.11538
1102.41	3.89989
1101.4	3.97522
1100.4	3.99248
1099.39	3.96017
1098.39	4.16406
1097.38	4.00715
1096.38	3.88919
1095.37	4.08625
1094.36	4.02968
1093.36	4.2144
1092.35	4.01316
1091.35	3.90934
1090.34	4.21238
1089.33	3.96079
1088.33	4.03125
1087.32	3.95437
1086.31	4.19349
1085.31	4.04083
1084.3	3.9126
1083.29	4.36032
1082.28	3.96156
1081.28	4.17748
1080.27	4.00319
1079.26	4.04553
1078.25	4.35533
1077.25	4.22195
1076.24	3.87008
1075.23	4.20682
1074.22	3.98447
1073.21	3.93517
1072.21	4.03171
1071.2	4.06315
1070.19	4.09502
1069.18	4.01471
1068.17	3.86138
1067.16	4.0571
1066.15	4.15601
1065.14	4.05424
1064.13	4.22191
1063.13	4.34918
1062.12	4.15664
1061.11	4.12022
1060.09	4.1082
1059.08	6.16935
1058.07	6.00509
1057.06	4.35958
1056.05	4.16044
1055.04	4.20474
1054.03	4.24897
1053.02	4.19149
1052.01	4.0842
1051	4.02426
1049.99	3.98918
1048.98	4.13255
1047.97	4.17791
1046.96	4.2942
1045.95	4.35651
1044.93	3.99986
1043.92	4.11742
1042.91	3.86273
1041.9	4.38584
1040.89	4.12952
1039.87	4.27993
1038.86	4.22436
1037.85	4.31462
1036.83	4.20915
1035.82	4.37751
1034.81	4.06665
1033.8	4.21958
1032.78	4.10577
1031.77	4.35824
1030.76	4.36567
1029.74	4.12649
1028.73	4.47579
1027.71	4.23069
1026.7	4.34957
1025.69	4.44516
1024.67	4.24768
1023.66	4.34719
1022.64	4.40019
1021.63	4.28012
1020.62	4.35579
1019.6	4.4012
1018.59	4.44057
1017.57	4.41492
1016.56	4.49637
1015.54	4.74626
1014.53	4.40191
1013.51	4.4849
1012.49	4.6025
1011.48	4.48432
1010.46	4.37804
1009.45	4.69745
1008.43	4.37901
1007.41	4.51313
1006.4	4.92886
1005.38	4.95835
1004.36	4.77241
1003.35	4.67771
1002.33	4.78961
1001.32	5.02711
1000.3	4.83536
999.281	5.06382
998.264	5.02693
997.245	4.86257
996.228	4.7952
995.211	5.04542
994.194	4.95352
993.175	5.12096
992.157	5.10993
991.14	5.28487
990.12	5.3329
989.102	5.72328
988.085	6.044
987.065	5.95699
986.046	5.81273
985.028	5.90018
984.008	5.98958
982.99	5.98522
981.971	5.93572
980.95	5.99655
979.932	6.02388
978.911	5.93127
977.892	6.04737
976.872	5.93855
975.851	6.27285
974.832	5.72583
973.812	5.95117
972.791	6.22791
971.771	6.33046
970.751	6.15885
969.729	6.28197
968.709	5.9226
967.687	5.99071
966.667	5.81828
965.646	6.09567
964.624	5.9778
963.603	6.05142
962.58	6.28966
961.559	6.03436
960.538	5.90781
959.515	6.0855
958.494	6.07192
957.471	6.15434
956.449	5.9086
955.426	6.36018
954.404	6.01273
953.382	5.98367
952.358	5.82383
951.336	6.21139
950.312	6.15139
949.29	6.05117
948.265	6.03489
947.243	6.29754
946.218	6.29258
945.195	6.27015
944.172	6.13048
943.147	6.2939
942.124	6.2373
941.099	6.18994
940.076	6.2012
939.05	6.09106
938.027	5.73311
937.001	5.83264
935.977	5.56614
934.951	5.36662
933.927	5.23118
932.901	5.36581
931.877	5.04429
930.85	5.06714
929.826	4.98387
928.799	4.983
927.774	4.73767
926.748	4.81932
925.723	4.90376
924.695	4.87038
923.67	4.93311
922.643	4.64303
921.617	5.0116
920.59	5.09106
919.564	4.96837
918.536	4.71709
917.51	4.76791
916.482	4.69004
915.456	4.99195
914.428	4.92285
913.399	4.92882
912.373	4.95762
911.344	4.73348
910.318	5.06689
909.289	4.78869
908.262	4.64829
907.233	4.94354
906.205	4.68314
905.176	4.90132
904.147	4.7558
903.119	4.78606
902.089	4.8341
901.061	4.90964
900.031	4.73814
899.001	5.07701
897.973	5.06147
896.943	4.89096
895.914	5.07453
894.884	4.89375
893.853	4.89972
892.825	4.65644
891.794	4.88776
890.765	5.09789
889.734	4.91243
888.702	4.89712
887.673	4.83152
886.641	4.92076
885.612	4.81061
884.58	4.95814
883.548	5.09452
882.518	4.95883
881.486	4.7916
880.454	5.00028
879.424	4.99455
878.391	4.79526
877.359	5.11493
876.328	4.76113
875.295	4.86944
874.262	4.93313
873.231	4.73365
872.198	4.7789
871.165	4.95506
870.134	4.9062
869.1	4.67712
868.067	5.00846
867.035	4.72541
866.001	4.67086
864.967	4.85129
863.935	4.78367
862.901	4.83397
861.866	4.89627
860.834	4.63282
859.799	4.88567
858.765	4.85817
857.732	4.80479
856.697	4.7832
855.662	4.66753
854.627	4.77001
853.593	4.83269
852.558	4.97092
851.522	4.80471
850.489	4.75178
849.453	4.7377
848.417	4.74036
847.381	4.88485
846.347	4.70465
845.311	4.73178
844.274	4.78587
843.238	4.81653
842.203	4.72369
841.167	4.88876
840.13	4.74619
839.093	5.02882
838.058	4.92895
837.021	4.9598
835.983	5.06639
834.946	4.80576
833.908	4.7249
832.873	4.85248
831.835	5.05554
830.797	4.63798
829.759	5.19052
828.723	4.81459
827.684	4.99752
826.646	5.04384
825.608	4.98973
824.569	4.9452
823.532	5.00206
822.493	4.82567
821.454	4.93022
820.415	4.98449
819.376	5.11635
818.339	4.9711
817.299	4.90177
816.26	5.08576
815.22	4.91118
814.18	4.9219
813.14	5.03403
812.102	5.16241
811.062	4.77266
810.021	5.12092
808.981	4.82859
807.94	4.90987
806.9	4.7839
805.861	5.13917
804.82	5.03472
803.779	5.09794
802.738	4.92787
801.697	5.00997
800.655	5.01445
799.614	5.0698
798.572	5.00043
797.532	4.98236
796.49	4.7932
795.448	4.683
794.406	5.01292
793.364	4.84906
792.322	4.86778
791.279	4.65293
790.237	5.15017
789.196	5.0758
788.153	4.9565
787.11	5.09671
786.067	4.95013
785.024	4.90935
783.981	4.72885
782.937	5.01604
781.894	4.91293
780.85	4.86152
779.806	5.04042
778.762	4.67274
777.718	4.992
776.676	4.89851
775.632	4.98211
774.587	5.06664
773.543	5.23689
772.498	5.04244
771.453	4.75284
770.408	4.77575
769.363	4.7786
768.318	4.88575
767.273	4.81407
766.228	4.92296
765.182	5.17461
764.136	4.77828
763.091	4.7864
762.045	4.61061
760.999	4.94412
759.953	4.99202
758.906	4.89108
757.86	4.94784
756.814	4.90537
755.767	4.93415
754.72	4.88162
753.673	4.90383
752.627	4.95655
751.579	5.01459
750.532	4.91923
749.485	4.87975
748.437	5.27959
747.39	4.77853
746.342	5.1422
745.294	4.74329
744.246	5.05738
743.198	4.77415
742.15	4.64525
741.102	4.85469
740.054	4.90802
739.005	4.85776
737.956	5.06982
736.908	5.04523
735.859	5.30837
734.81	4.86073
733.76	4.92595
732.711	4.97823
731.662	4.77152
730.612	4.89035
729.563	5.1508
728.513	5.20937
727.461	4.92187
726.411	4.76459
725.361	5.00196
724.311	4.68161
723.26	4.96579
722.21	4.92946
721.159	4.90895
720.108	4.95434
719.058	5.23209
718.007	5.07835
716.955	4.78837
715.904	4.87017
714.851	5.05704
713.799	5.21772
712.748	5.00666
711.696	5.01109
710.644	4.91505
709.592	5.19464
708.54	5.18344
707.488	5.00672
706.436	5.22437
705.381	4.79125
704.329	5.34291
703.276	5.22851
702.223	5.2624
701.17	5.24704
700.117	5.18723
699.064	5.00488
698.009	5.0369
696.955	5.15588
695.902	5.28826
694.848	5.18364
693.794	5.1149
692.74	5.06968
691.686	4.93726
690.63	5.28251
689.576	5.23511
688.521	5.19386
687.467	5.24373
686.412	5.37736
685.357	5.27665
684.301	5.31551
683.245	5.44554
682.19	5.45677
681.135	5.28632
680.08	5.49174
679.022	5.26381
677.967	5.39787
676.911	5.45032
675.855	5.41607
674.799	5.34308
673.741	5.43534
672.684	5.35073
671.628	5.53074
670.572	5.33262
669.513	5.50907
668.456	5.54268
667.399	5.47347
666.342	5.4721
665.285	5.52142
664.226	5.4773
663.169	5.59758
662.111	5.56963
661.053	5.43114
659.994	5.59512
658.936	5.73378
657.878	5.46069
656.82	5.56273
655.76	5.64394
654.701	5.64573
653.643	5.8612
652.584	5.64623
651.523	6.08375
650.465	6.1193
649.406	5.8765
648.344	5.68628
647.285	5.9479
646.226	5.88535
645.166	5.97746
644.105	6.18102
643.045	5.8911
641.985	6.30285
640.923	6.18504
639.863	6.17341
638.803	6.07296
637.743	6.35303
636.68	6.51651
635.62	6.46262
634.559	5.98164
633.496	6.31043
632.435	5.95163
631.374	6.59414
630.311	6.21166
629.25	6.51301
628.188	6.31412
627.124	6.16793
626.063	6.59485
625.001	6.75772
623.937	6.84743
622.875	6.43995
621.813	6.72055
620.748	6.39822
619.686	6.56083
618.623	6.50207
617.559	6.76257
616.496	6.61046
615.431	6.79641
614.368	6.52236
613.305	6.56408
612.239	6.18936
611.176	6.38996
610.112	5.81496
609.047	5.85389
607.983	5.69672
606.917	5.76702
605.853	5.92024
604.789	5.71386
603.722	5.67486
602.658	5.86146
601.591	5.88
600.526	5.92098
599.462	5.68776
598.395	5.76707
597.33	5.74076
596.262	5.8475
595.197	6.00593
594.132	6.03647
593.064	6.04037
591.998	5.92343
590.931	6.02622
589.865	5.91012
588.797	5.852
587.73	6.00396
586.664	5.96351
585.596	5.97882
584.529	6.15952
583.46	6.02883
582.394	6.42453
581.325	6.17145
580.258	6.19358
579.188	6.31196
578.121	6.49154
577.054	6.48165
575.984	6.61089
574.916	6.65855
573.847	6.50659
572.779	6.44695
571.708	6.49847
570.64	6.74291
569.57	6.57024
568.502	6.95806
567.431	6.62572
566.362	6.50136
565.291	7.18718
564.222	6.69777
563.151	7.1576
562.082	7.43711
561.011	7.32798
559.941	7.17686
558.87	7.30563
557.8	7.57103
556.728	7.51746
555.658	7.60587
554.586	7.67608
553.516	7.66586
552.444	7.88002
551.373	7.92046
550.301	8.02596
549.228	8.23152
548.157	8.60792
547.084	8.62444
546.013	9.04117
544.94	9.18817
543.868	9.47976
542.795	9.71163
541.723	9.65305
540.65	10.1361
539.578	10.4207
538.504	10.7005
537.43	10.9257
536.358	11.3122
535.283	11.9312
534.211	12.537
533.136	13.4567
532.063	13.9817
530.988	14.96
529.914	15.5914
528.84	16.9729
527.765	18.6054
526.692	20.3647
525.616	23.2343
524.541	25.5548
523.467	29.4823
522.391	32.9461
521.317	35.436
520.241	35.8807
519.165	35.3613
518.09	32.6357
517.014	28.6104
515.939	23.7711
514.862	19.9495
513.786	17.0577
512.711	14.6141
511.633	12.3902
510.556	10.8183
509.481	9.49744
508.403	8.58799
507.326	7.76923
506.25	7.16061
505.172	6.93255
504.096	6.36196
503.018	6.1787
501.939	5.86143
500.863	5.42811
499.784	5.42735
498.706	5.5093
497.629	5.44302
496.55	5.24111
495.471	5.22003
494.394	4.9351
493.315	5.07911
492.235	4.84687
491.158	5.01748
490.078	5.25095
488.998	4.99874
487.918	4.82717
486.84	4.99741
485.76	4.79802
484.68	4.60336
483.601	5.09694
482.521	4.86081
481.44	4.69192
480.361	4.93649
479.28	4.90724
478.199	4.78058
477.118	4.69677
476.038	5.0012
474.957	4.97667
473.875	4.97361
472.796	5.02625
471.714	5.07694
470.632	4.90161
469.55	4.8756
468.47	4.84092
467.387	5.00273
466.305	4.77304
465.222	4.87069
464.141	4.7113
463.058	4.8975
461.975	4.84086
460.892	5.0858
459.811	4.96579
458.728	5.07497
457.644	5.11693
456.56	5.08862
455.479	5.16234
454.395	5.15153
453.311	4.97017
452.227	5.20245
451.142	5.40786
450.06	5.20773
448.975	5.33924
447.891	5.08615
446.806	5.15684
445.721	5.30833
444.638	5.36019
443.553	5.6514
442.467	5.17672
441.382	5.53571
440.296	5.27913
439.213	5.40198
438.127	5.42916
437.041	5.54845
435.955	5.31505
434.869	5.26692
433.784	5.5251
432.698	5.41008
431.611	5.45797
430.525	5.39599
429.438	5.49285
428.351	6.03129
427.266	5.75694
426.178	5.5099
425.091	5.46888
424.004	5.49367
422.916	5.22735
421.828	5.46654
420.74	5.40877
419.654	5.50763
418.566	5.30956
417.478	5.68299
416.389	5.57909
415.301	5.41456
414.212	6.00329
413.124	5.75043
412.035	5.52605
410.948	5.66217
409.858	5.85735
408.769	5.74645
407.68	5.66695
406.59	5.768
405.5	5.53838
404.411	5.38636
403.321	5.56459
402.231	5.40983
401.142	5.76572
400.052	6.01889
398.962	5.48977
397.871	5.89081
396.78	5.71806
395.689	5.60174
394.598	5.51544
393.507	5.73569
392.416	5.74393
391.325	5.83009
390.233	5.88558
389.142	5.97
388.052	5.60016
386.96	5.62724
385.868	5.65441
384.776	5.63645
383.683	5.89167
382.591	5.59552
381.499	6.24253
380.406	5.94413
379.313	5.77243
378.22	5.96962
377.127	6.04341
376.034	5.96315
374.941	5.91931
373.847	5.74364
372.754	6.19482
371.66	6.22477
370.566	6.05137
369.472	5.85045
368.378	5.8277
367.284	5.9873
366.189	6.12312
365.095	6.04591
364	5.89754
362.905	6.33301
361.811	6.12953
360.716	6.19689
359.62	5.96659
358.525	6.11739
357.43	6.15101
356.334	6.02282
355.239	6.4881
354.143	6.64657
353.047	6.55762
351.951	6.53043
350.855	6.72051
349.758	6.38413
348.662	6.78607
347.565	6.35012
346.469	6.46108
345.372	6.72326
344.275	6.64195
343.178	6.90696
342.08	7.17995
340.983	7.17555
339.886	7.22778
338.788	7.61438
337.69	7.28784
336.592	7.30951
335.494	7.09614
334.394	7.16918
333.296	7.20643
332.197	7.07075
331.099	7.12361
330	7.39726
328.901	7.42095
327.803	7.35126
326.703	7.6623
325.604	7.30947
324.505	7.73306
323.406	7.57977
322.306	7.8028
321.204	8.27816
320.104	8.22123
319.004	8.57391
317.904	8.83912
316.804	9.34329
315.704	10.0341
314.603	10.773
313.503	11.5265
312.402	11.9467
311.299	12.8522
310.198	12.605
309.097	12.2287
307.995	11.5624
306.894	10.683
305.792	10.7597
304.691	10.5828
303.589	10.3701
302.485	10.362
301.383	10.4499
300.281	11.2199
299.178	11.1854
298.076	12.0562
296.973	12.9173
295.871	13.3728
294.766	13.5312
293.663	13.0576
292.559	12.6197
291.456	12.0547
290.353	10.8633
289.249	10.6194
288.144	10.0678
287.04	9.28848
285.936	9.27634
284.832	8.81661
283.728	8.42999
282.621	8.65809
281.517	8.54194
280.412	8.52385
279.308	8.47773
278.203	8.52927
277.098	8.94021
275.991	8.85427
274.885	9.36006
273.78	9.85981
272.674	10.0873
271.567	10.7769
270.461	11.4953
269.355	11.9022
268.249	12.2706
267.143	12.3602
266.035	12.2083
264.928	10.9306
263.822	10.4169
262.715	9.96954
261.606	9.42762
260.499	9.019
259.392	8.51942
258.285	8.4614
257.175	8.08298
256.068	8.33918
254.96	8.13394
253.852	8.07636
252.742	7.86157
251.634	7.39657
250.526	8.3826
249.418	7.47576
248.308	7.54562
247.199	8.00383
246.09	7.62978
244.982	7.70722
243.87	7.6796
242.761	7.7639
241.652	7.79074
240.541	7.28368
239.431	8.04195
238.322	7.64363
237.212	7.64414
236.1	7.68186
234.99	7.76234
233.88	7.69935
232.768	7.90363
231.657	7.87787
230.547	7.75055
229.436	7.78784
228.323	7.6901
227.212	8.18796
226.101	8.15471
224.988	7.95541
223.876	8.09642
222.765	8.20811
221.651	8.48919
220.54	8.87239
219.428	8.19285
218.314	8.83422
217.201	8.34733
216.089	8.23767
214.975	7.95711
213.862	7.57358
212.75	7.80113
211.635	7.28462
210.522	7.12805
209.407	7.43433
208.293	7.57684
207.18	7.49783
206.064	7.44452
204.951	7.41314
203.837	7.41811
202.721	6.96847
201.607	7.44265
200.493	7.58519
199.377	7.49139
198.262	7.60341
197.146	7.3556
196.031	7.38219
194.916	7.50196
193.799	7.10453
192.684	7.32399
191.567	7.8317
190.451	8.06889
189.336	7.83301
188.218	7.69682
187.103	8.20084
185.985	7.90301
184.869	8.1511
183.752	7.82683
182.634	8.35188
181.518	8.32268
180.399	8.45575
179.282	8.55309
178.165	8.64928
177.046	8.7167
175.929	9.26215
174.81	9.69463
173.693	9.44276
172.573	10.6064
171.455	11.1449
170.336	12.3613
169.218	13.75
168.1	14.8701
166.979	16.6516
165.861	19.0652
164.741	21.0406
163.622	22.9552
162.501	24.5815
161.382	23.6507
160.261	22.6086
159.142	20.6278
158.021	18.859
156.902	17.0534
155.78	15.389
154.66	14.1803
153.539	13.6587
152.419	12.7339
151.299	11.8111
150.176	12.0286
149.056	11.3823
147.933	10.8322
146.813	10.6971
145.69	10.2411
144.569	10.7224
143.446	9.98192
142.325	10.6327
141.202	10.2411
140.08	10.1281
138.957	9.97231
137.833	9.74611
136.711	10.0701
135.587	9.45198
134.465	9.64254
133.341	9.55716
132.218	9.87931
131.094	9.25813
129.971	9.59066
128.846	9.67462
127.723	9.62552
126.598	9.22211
125.475	9.72277
124.35	9.80215
123.226	9.60262
122.101	9.33529
120.975	9.62972
119.851	10.2812
118.725	11.0647
117.601	10.9514
116.475	15.599
115.35	14.1395
114.224	12.1174
113.097	11.8366
111.972	11.3201
110.845	10.4536
109.72	10.7497
108.593	10.6198
107.467	10.887
106.34	10.5119
105.212	10.6031
104.086	10.1477
102.958	10.1508
101.832	9.77015
100.704	10.177
99.5758	9.94047
98.4494	10.1292
97.3208	10.4261
96.1941	9.93546
95.0652	10.7765
93.9361	10.6651
92.8091	10.4905
91.6797	10.6432
90.5524	11.2731
89.4228	10.4616
88.293	10.7097
87.1653	10.9305
86.0352	10.6369
84.9051	11.385
83.7769	11.4573
82.6465	11.5229
81.5159	11.4685
80.3874	11.0116
79.2565	11.0486
78.1277	11.4195
76.9966	11.4948
75.8653	11.3335
74.7361	11.4625
73.6046	11.9591
72.4729	11.7364
71.3432	11.7598
70.2113	12.0537
69.0792	12.3119
67.9492	12.8874
66.8168	13.3835
65.6843	13.3748
64.5539	13.8762
63.4211	13.5934
62.2882	14.3122
61.1573	15.1509
60.0242	14.8386
58.8909	15.069
57.7574	14.4852
56.626	14.3605
55.4923	13.4366
54.3584	13.5749
53.2266	14.0235
52.0924	13.4034
50.9582	13.4406
49.8259	14.2482
48.6914	14.0275
47.5567	13.4265
46.4219	14.065
45.2891	13.9223
44.154	15.2888
43.0188	15.212
41.8856	16.3569
40.7501	17.1864
39.6144	19.324
38.4787	21.0571
37.3449	26.0294
36.2089	26.0687
35.0727	30.2627
33.9363	33.6674];
