function [] = processRamanGatingDataPlusPoint4()

dataBackground = [
1660.49	95
1659.55	95.7
1658.61	97.25
1657.67	94.3
1656.73	95.25
1655.79	94.65
1654.85	96.9
1653.91	95.4
1652.97	95.35
1652.03	97.3
1651.09	95.8
1650.15	96.5
1649.21	95.7
1648.27	95.35
1647.33	96.3
1646.39	96.35
1645.45	96.85
1644.51	96.55
1643.57	96.3
1642.63	96.15
1641.69	97.85
1640.75	96.65
1639.8	96.8
1638.86	97.35
1637.92	97.45
1636.98	96.95
1636.04	96.55
1635.1	97.8
1634.15	98.1
1633.21	97.15
1632.27	98.3
1631.33	97.8
1630.38	96.95
1629.44	98.1
1628.5	97.7
1627.55	97.9
1626.61	100.35
1625.67	100.05
1624.73	99.25
1623.78	100.65
1622.84	100.1
1621.9	102.75
1620.95	99.85
1620.01	101.95
1619.07	101.05
1618.12	101.55
1617.18	101.95
1616.23	100.75
1615.29	101.25
1614.34	102.45
1613.4	101.1
1612.46	102.2
1611.51	101.2
1610.57	101
1609.62	102.1
1608.68	103.25
1607.73	101.8
1606.78	103.25
1605.84	102.2
1604.9	101.65
1603.95	103.65
1603	102.9
1602.06	103.5
1601.11	102.7
1600.17	103.3
1599.22	103.05
1598.27	103.65
1597.33	103.8
1596.38	104.2
1595.43	102.4
1594.49	103.7
1593.54	103.05
1592.59	104.2
1591.65	102.4
1590.7	102.45
1589.75	104
1588.81	103.6
1587.86	104.75
1586.91	105
1585.96	102.75
1585.01	103.45
1584.07	103.1
1583.12	102.7
1582.17	102.2
1581.22	104.6
1580.27	103.9
1579.33	101.85
1578.38	103.9
1577.43	102.45
1576.48	103.45
1575.53	103.05
1574.58	103.6
1573.63	102.35
1572.68	102.55
1571.73	103
1570.78	104.3
1569.83	103.8
1568.89	103.25
1567.94	102.95
1566.99	102.8
1566.04	103.05
1565.08	102.55
1564.14	101.05
1563.18	102.45
1562.23	102.55
1561.28	100.8
1560.33	102.3
1559.38	101.4
1558.43	101.85
1557.48	100.5
1556.53	103.55
1555.58	102.75
1554.63	101
1553.68	100.85
1552.72	101.2
1551.77	102.35
1550.82	101.75
1549.87	101.2
1548.92	100.65
1547.96	100.35
1547.01	100.95
1546.06	100.25
1545.11	100.05
1544.15	100.4
1543.2	101.55
1542.25	99.25
1541.3	101.35
1540.34	99.7
1539.39	99.2
1538.44	100
1537.48	99.9
1536.53	98.95
1535.58	97.9
1534.62	99.3
1533.67	97.65
1532.72	98.7
1531.76	98.9
1530.81	98.75
1529.85	98.4
1528.9	97.55
1527.94	97.35
1526.99	97.55
1526.03	98.05
1525.08	98.2
1524.13	97.45
1523.17	97.75
1522.22	97.6
1521.26	97.35
1520.3	98.6
1519.35	96.55
1518.39	97.3
1517.44	97.95
1516.48	98
1515.53	97.55
1514.57	97.05
1513.61	97.1
1512.66	97.7
1511.7	98.55
1510.75	97.1
1509.79	96.55
1508.83	96.85
1507.87	97.2
1506.92	98.9
1505.96	97.15
1505	97.45
1504.05	97.2
1503.09	98.5
1502.13	98.45
1501.17	99.2
1500.22	100.35
1499.26	100.85
1498.3	100.3
1497.34	100.8
1496.39	101.2
1495.43	101.5
1494.47	103.65
1493.51	103.8
1492.55	104.35
1491.59	105.3
1490.63	107
1489.68	106.9
1488.72	106.85
1487.76	109.2
1486.8	108.05
1485.84	111.3
1484.88	111.15
1483.92	111.15
1482.96	111.9
1482	112.55
1481.04	115.85
1480.08	115.25
1479.12	117.55
1478.16	118.1
1477.2	119.35
1476.24	119.4
1475.28	121.2
1474.32	120.15
1473.36	123.65
1472.39	125.5
1471.43	126.05
1470.47	129.95
1469.51	130.45
1468.55	132.6
1467.59	132.85
1466.63	132.25
1465.67	135.9
1464.7	135.25
1463.74	136.15
1462.78	137.85
1461.82	141.3
1460.85	141.75
1459.89	142.05
1458.93	145.85
1457.97	147.75
1457	148
1456.04	147.1
1455.08	148.65
1454.11	147.05
1453.15	145.6
1452.19	144.9
1451.23	143.5
1450.26	141.9
1449.3	141.2
1448.33	136.4
1447.37	134.95
1446.41	130.7
1445.44	129.35
1444.48	127.4
1443.51	123.4
1442.55	120.6
1441.59	118.6
1440.62	115.6
1439.66	112.85
1438.69	112.15
1437.72	110.8
1436.76	108.6
1435.79	106.5
1434.83	106.15
1433.86	106.25
1432.9	105.5
1431.93	103.25
1430.97	105.45
1430	102.95
1429.03	102.85
1428.07	102.65
1427.1	100.5
1426.14	101.8
1425.17	100.3
1424.2	100
1423.24	99.05
1422.27	99
1421.3	100
1420.34	97.2
1419.37	99.4
1418.4	98.15
1417.43	98.8
1416.47	99.4
1415.5	99.85
1414.53	101
1413.56	99.15
1412.6	101
1411.63	99.8
1410.66	101.3
1409.69	101.4
1408.72	100.85
1407.75	101.35
1406.78	102.05
1405.82	102.7
1404.85	101
1403.88	102.35
1402.91	102.65
1401.94	100.85
1400.97	102.05
1400	102.3
1399.03	101.75
1398.06	101.8
1397.09	101.65
1396.12	99.15
1395.15	100.45
1394.18	99.7
1393.21	99.2
1392.24	98.35
1391.27	98
1390.3	98.65
1389.33	98.15
1388.36	98.25
1387.39	98.2
1386.42	98.2
1385.45	99.2
1384.47	98.85
1383.5	99.8
1382.53	98.45
1381.56	98.45
1380.59	99.8
1379.61	98.25
1378.64	98.5
1377.67	98.7
1376.7	98.8
1375.73	98.8
1374.75	98.15
1373.78	98.25
1372.81	98.1
1371.84	98.45
1370.86	98.4
1369.89	99.05
1368.92	100.1
1367.95	99.15
1366.97	100.65
1366	101.45
1365.02	101.65
1364.05	102.8
1363.08	103.4
1362.1	105.5
1361.13	105.15
1360.15	107.7
1359.18	106.9
1358.2	108.85
1357.23	108.8
1356.26	109.65
1355.28	109.55
1354.31	110.85
1353.33	110.3
1352.36	110.85
1351.38	110.8
1350.41	111.85
1349.43	110.4
1348.46	110.05
1347.48	110.8
1346.5	110.05
1345.53	111
1344.55	109
1343.58	109.4
1342.6	108.5
1341.62	109.25
1340.65	110.55
1339.67	108.8
1338.69	111.25
1337.72	113.2
1336.74	114.35
1335.76	114.4
1334.79	116.15
1333.81	117.45
1332.83	118.45
1331.85	118.3
1330.88	119
1329.9	117.5
1328.92	116.2
1327.94	114.95
1326.97	114.65
1325.99	111.05
1325.01	112.6
1324.03	110.45
1323.05	110.3
1322.07	109
1321.09	108.4
1320.11	106.95
1319.14	106.5
1318.16	105.5
1317.18	105.25
1316.2	103.6
1315.22	103.8
1314.24	103.9
1313.26	101.1
1312.28	103.6
1311.3	101
1310.32	102.1
1309.34	101.4
1308.36	101.65
1307.38	99.5
1306.4	100.55
1305.42	99.05
1304.44	100.75
1303.46	98
1302.48	97.85
1301.49	98.25
1300.51	96.8
1299.53	97.9
1298.55	97.4
1297.57	97.2
1296.59	96.65
1295.6	96.9
1294.62	95.7
1293.64	94.75
1292.66	93.55
1291.68	93.65
1290.69	92.2
1289.71	92.5
1288.73	90.75
1287.75	90.55
1286.76	90.95
1285.78	90.15
1284.8	90.55
1283.81	90
1282.83	89.7
1281.85	89.85
1280.86	90.1
1279.88	89.45
1278.9	90
1277.91	89.15
1276.93	89.55
1275.94	88.6
1274.96	89.2
1273.98	88.2
1272.99	88.65
1272.01	90.5
1271.02	89.55
1270.04	89.9
1269.05	90.05
1268.07	90.15
1267.08	91.75
1266.1	92.55
1265.11	92.15
1264.13	92.75
1263.14	92.7
1262.15	94.05
1261.17	93.65
1260.18	94.65
1259.2	92.75
1258.21	93.85
1257.22	93.9
1256.24	94.9
1255.25	96.05
1254.26	96.55
1253.28	96.55
1252.29	97.9
1251.3	98.9
1250.32	102.15
1249.33	107.2
1248.34	115.15
1247.35	126.3
1246.37	141.25
1245.38	158.9
1244.39	176.3
1243.4	188.95
1242.41	191.7
1241.43	187.95
1240.44	180.3
1239.45	166.05
1238.46	153
1237.47	141.15
1236.48	131.25
1235.5	123.5
1234.51	117
1233.52	111.05
1232.53	107.45
1231.54	104.35
1230.55	102.6
1229.56	102.25
1228.57	101.05
1227.58	97.15
1226.59	97.7
1225.6	96.95
1224.61	97
1223.62	95.25
1222.63	96.75
1221.64	96.75
1220.65	94.9
1219.66	93.75
1218.67	96.2
1217.68	95.3
1216.68	94.75
1215.69	95
1214.7	95.5
1213.71	95.25
1212.72	95.6
1211.73	95.75
1210.74	95.15
1209.74	94.9
1208.75	94.9
1207.76	95.2
1206.77	95.8
1205.77	95.55
1204.78	94.5
1203.79	94.2
1202.8	94.6
1201.8	95.45
1200.81	95.65
1199.82	95.45
1198.82	95.35
1197.83	93.2
1196.84	94.6
1195.84	95.2
1194.85	95.05
1193.86	93.2
1192.86	95.1
1191.87	93.95
1190.87	93.4
1189.88	92.95
1188.88	94.5
1187.89	92.75
1186.9	93.25
1185.9	94.55
1184.91	92.75
1183.91	93.05
1182.91	91.9
1181.92	93.9
1180.93	92.8
1179.93	91.95
1178.93	92.2
1177.94	92.95
1176.94	91.05
1175.95	90.65
1174.95	91.3
1173.95	91.15
1172.96	91.65
1171.96	91.4
1170.97	90.1
1169.97	90.5
1168.97	88.6
1167.97	89.65
1166.98	88.6
1165.98	89.35
1164.98	88.5
1163.98	88.75
1162.99	90.45
1161.99	89.45
1160.99	89.35
1159.99	90.05
1159	90.25
1158	87.85
1157	89
1156	89.65
1155	90.85
1154.01	91.1
1153.01	92.15
1152.01	93.25
1151.01	95.35
1150.01	98.9
1149.01	99.75
1148.01	104.35
1147.01	108.05
1146.01	110.8
1145.01	113.35
1144.01	116.45
1143.01	119.95
1142.01	122
1141.01	125.35
1140.01	128.75
1139.01	132
1138.01	134.8
1137.01	136.15
1136.01	133.85
1135.01	132.15
1134.01	129.7
1133.01	127.85
1132	120.2
1131	118.35
1130	114.05
1129	108.7
1128	105.9
1127	103.85
1125.99	102.4
1124.99	100.25
1123.99	98.15
1122.99	96
1121.99	95.65
1120.98	94.25
1119.98	93.5
1118.98	93.55
1117.98	92.25
1116.97	92.4
1115.97	90
1114.97	90.95
1113.96	91
1112.96	90.15
1111.96	90.45
1110.95	90.3
1109.95	91
1108.94	90.4
1107.94	91.2
1106.94	90.5
1105.93	90.25
1104.93	89.2
1103.92	89.45
1102.92	87.5
1101.91	86.3
1100.91	85.75
1099.9	85.9
1098.9	83
1097.89	82.6
1096.89	83.15
1095.88	82.15
1094.88	82.7
1093.87	82.65
1092.86	82.65
1091.86	81.25
1090.85	81.9
1089.85	80.55
1088.84	83.45
1087.83	82.1
1086.83	83.95
1085.82	82.65
1084.81	85.05
1083.81	84.9
1082.8	84.7
1081.79	86.5
1080.78	86.5
1079.78	86.25
1078.77	84.75
1077.76	85.1
1076.75	84.8
1075.75	85.65
1074.74	86.05
1073.73	86.3
1072.72	87.85
1071.71	86.4
1070.7	86.8
1069.7	88.25
1068.69	87.65
1067.68	87.1
1066.67	88.25
1065.66	86.3
1064.65	86.45
1063.64	85.3
1062.63	84.25
1061.62	83.95
1060.61	82.75
1059.6	81.95
1058.59	81.8
1057.58	81.95
1056.57	80.45
1055.56	80.95
1054.55	81.55
1053.54	81.75
1052.53	81.75
1051.52	80.6
1050.51	82.55
1049.5	81.4
1048.49	80.6
1047.47	82.7
1046.46	81.8
1045.45	83.05
1044.44	82.75
1043.43	82.7
1042.42	82.3
1041.4	83.55
1040.39	82.5
1039.38	84.3
1038.37	84.5
1037.35	84.15
1036.34	85.1
1035.33	86.95
1034.32	86.55
1033.3	88.05
1032.29	87.95
1031.28	88.8
1030.26	89.05
1029.25	90.9
1028.24	90.25
1027.22	93.05
1026.21	91.75
1025.19	92.85
1024.18	93.2
1023.17	91.45
1022.15	92.1
1021.14	91.15
1020.12	91.4
1019.11	92.75
1018.09	93.8
1017.08	93.95
1016.06	94.2
1015.05	93.05
1014.03	94.1
1013.02	94.9
1012	95.3
1010.99	97.3
1009.97	96.05
1008.95	97.3
1007.94	97
1006.92	98.7
1005.91	99.8
1004.89	98.95
1003.87	99.6
1002.86	100.25
1001.84	99.75
1000.82	100.3
999.806	99.75
998.788	100.25
997.771	100.4
996.754	101
995.737	102.05
994.718	102.4
993.701	104
992.683	104.15
991.664	105.1
990.646	106.95
989.629	108.4
988.611	110.9
987.591	112.8
986.573	115.45
985.555	115.75
984.535	117
983.516	117.55
982.498	115.95
981.477	117.3
980.458	118
979.439	116.3
978.419	118.3
977.399	116.95
976.38	117.25
975.359	117.2
974.34	117.6
973.32	116.6
972.298	117.6
971.279	116.95
970.259	116.85
969.237	117.75
968.216	117.7
967.196	117
966.174	117.65
965.153	117.8
964.133	119.35
963.11	119.4
962.089	119
961.068	120.8
960.045	122.4
959.024	121.75
958.001	123.35
956.979	125.2
955.958	123.7
954.934	124.6
953.912	123.75
952.889	123.5
951.867	123.2
950.844	122.05
949.82	122.8
948.798	122.45
947.773	120.6
946.751	119.9
945.728	120.15
944.703	120.65
943.68	120.2
942.655	120.15
941.632	119.4
940.607	117.55
939.583	115.5
938.56	112
937.534	109.2
936.51	106.55
935.485	103.35
934.461	101.55
933.435	99.1
932.41	96.4
931.384	94
930.36	92.25
929.335	91.7
928.308	87.7
927.283	88.5
926.257	87.4
925.231	86
924.204	84.65
923.179	84.75
922.152	83.25
921.126	83.2
920.098	83.9
919.073	83.6
918.045	84.5
917.019	82.45
915.991	82.55
914.964	81.2
913.936	82.7
912.91	81.25
911.881	81.35
910.854	82.85
909.826	81.55
908.799	81.5
907.77	79.9
906.742	80.9
905.713	81.4
904.684	82.15
903.656	80.85
902.627	80
901.599	80.4
900.569	80.9
899.541	81.1
898.511	81.4
897.483	80.6
896.452	81.6
895.422	82
894.393	83.5
893.362	83.55
892.334	85.05
891.303	86
890.274	87.75
889.242	90.1
888.211	92.9
887.182	93.8
886.15	97.1
885.12	99.25
884.089	99.5
883.057	100.7
882.027	100.8
880.995	98.75
879.964	98.6
878.932	98.9
877.9	99.55
876.869	98.5
875.836	97.6
874.805	97.75
873.772	95.55
872.739	96.1
871.708	96.35
870.675	95.15
869.641	93.85
868.61	93.8
867.576	91.6
866.544	90.75
865.51	88.35
864.476	87.15
863.444	87.35
862.41	85.05
861.376	85.9
860.343	83.75
859.308	83.4
858.274	82.5
857.241	83.05
856.206	82.85
855.171	82.5
854.138	82.65
853.102	81.65
852.067	81.7
851.031	81.85
849.997	82.25
848.962	82.4
847.926	82.45
846.892	82.45
845.856	81.95
844.819	82.75
843.785	83.75
842.748	84.8
841.712	84.9
840.675	85.5
839.64	85.8
838.603	87.2
837.566	87.45
836.529	88.15
835.493	86.25
834.456	87.4
833.418	87.55
832.382	86.15
831.344	85.95
830.307	87
829.268	85.2
828.232	85.7
827.194	86.75
826.155	87.35
825.117	88
824.078	87.7
823.041	87.3
822.002	86.6
820.963	86.6
819.924	87.55
818.887	86
817.847	86.5
816.808	86.65
815.768	86.7
814.729	86.6
813.691	86.9
812.651	86.75
811.611	86.55
810.57	85.25
809.53	87.1
808.491	84.25
807.451	85.05
806.41	85.55
805.369	84.75
804.328	84.1
803.289	85.35
802.248	85.75
801.207	86.65
800.165	86.15
799.124	87.6
798.082	87.4
797.042	88.9
796	87.1
794.958	87.1
793.916	88.35
792.874	87.8
791.831	85.45
790.789	87
789.748	85.75
788.705	85.35
787.662	84.45
786.619	83.7
785.576	82.95
784.533	81.7
783.49	81.4
782.446	80.05
781.404	81.35
780.361	79.8
779.317	80
778.273	79.3
777.229	79.7
776.184	78.45
775.14	78.9
774.096	79.05
773.051	79.15
772.006	80.25
770.964	79.45
769.919	79.8
768.873	81.25
767.828	80.95
766.783	82.2
765.737	83.3
764.692	84.55
763.646	85.55
762.6	85.4
761.555	86.05
760.508	85.35
759.462	84.55
758.416	84.1
757.37	84.9
756.323	84.95
755.278	87.7
754.232	88.25
753.185	90.25
752.138	93.5
751.091	97.35
750.043	104
748.996	112.25
747.948	126.65
746.901	143.55
745.853	169.35
744.805	206.3
743.757	252.45
742.709	303.85
741.661	335.45
740.613	330.85
739.564	295.7
738.516	243.25
737.467	196.35
736.418	158.6
735.369	133.65
734.32	117.05
733.271	104.85
732.221	97.6
731.172	93.35
730.122	89.45
729.073	85.6
728.023	83.85
726.973	82.7
725.923	82.75
724.873	80.8
723.82	78.45
722.77	80.2
721.719	80.25
720.669	79.7
719.618	78.5
718.567	79.35
717.516	79.85
716.465	79.4
715.414	79.6
714.362	79.45
713.311	79.35
712.259	79.7
711.207	79.7
710.155	78.7
709.103	80.5
708.049	80.65
706.997	81.1
705.944	79.25
704.892	80.45
703.839	79.9
702.787	80.25
701.734	80.1
700.681	79.3
699.628	80.05
698.574	81.15
697.519	79.45
696.466	81.3
695.412	82.45
694.358	83.75
693.304	83.6
692.25	87.4
691.196	89.25
690.142	92.75
689.086	95.85
688.031	101.25
686.977	108.15
685.922	117.1
684.867	124.6
683.812	131.2
682.757	137.4
681.7	140.95
680.644	141.55
679.589	138.95
678.533	134.7
677.478	127.35
676.422	118.65
675.364	112.85
674.308	106.25
673.252	99.7
672.195	98.05
671.139	95
670.082	93.15
669.024	90.5
667.967	90.1
666.91	90.7
665.853	87.9
664.796	87.95
663.736	88.2
662.679	86.3
661.621	87.4
660.564	87.35
659.504	86.8
658.446	87.8
657.388	87.05
656.33	87.2
655.272	88.6
654.211	88.75
653.153	88.95
652.094	88.1
651.035	87.95
649.974	88.8
648.915	87.75
647.856	88.65
646.797	88.15
645.735	89.35
644.676	89.15
643.616	89.3
642.556	88.3
641.495	89.25
640.435	89.6
639.374	90.6
638.314	89.9
637.252	91.1
636.191	90.1
635.131	92.5
634.068	91.65
633.007	91.25
631.946	91.55
630.885	93.05
629.821	93.05
628.76	91.2
627.699	93.45
626.635	93.35
625.573	94.6
624.511	95.2
623.447	95.2
622.385	96.25
621.323	97.9
620.26	99.5
619.196	99.9
618.133	101.95
617.071	100.25
616.006	99.5
614.943	97.95
613.88	94.1
612.814	94.9
611.751	93.7
610.687	91.6
609.622	90.35
608.558	91.35
607.492	89.5
606.428	89.85
605.364	90.7
604.298	91.25
603.233	92.9
602.169	92.4
601.102	93.15
600.038	95
598.973	94.3
597.906	95.05
596.841	97.45
595.773	97.05
594.708	99.1
593.642	100.65
592.575	101.2
591.509	103.6
590.441	103.65
589.375	104
588.309	103.4
587.241	102.55
586.174	102.5
585.106	103.25
584.039	101.65
582.973	102.6
581.904	102.7
580.837	102.9
579.768	104.65
578.7	104.75
577.631	107
576.563	108.85
575.496	112.25
574.426	116.2
573.358	119.8
572.288	125.15
571.22	127.45
570.15	125.85
569.081	125.8
568.011	122.6
566.942	119.4
565.874	120.1
564.803	119.7
563.734	120.1
562.662	122.65
561.593	124.5
560.522	126.65
559.452	128.95
558.381	131.3
557.311	133.55
556.239	133.4
555.169	135.6
554.097	136.6
553.027	138.4
551.954	142.95
550.884	144
549.811	144.3
548.74	144.95
547.667	144.8
546.596	142.15
545.523	141.75
544.452	145.1
543.379	145.25
542.307	150.4
541.233	152.5
540.162	154.95
539.088	161.25
538.016	167.55
536.941	173.9
535.869	181.25
534.795	189.65
533.72	197.75
532.648	208.3
531.573	221.25
530.5	236.3
529.425	254.1
528.352	276.3
527.276	305.4
526.203	340
525.127	381.6
524.052	436
522.978	491.15
521.902	550.65
520.828	599.1
519.752	609.3
518.677	581.3
517.601	529.15
516.524	457.35
515.45	388.55
514.373	321.5
513.298	269.65
512.221	225.55
511.144	193.05
510.068	167.7
508.991	147.85
507.915	132.7
506.838	121
505.76	110.75
504.684	104.45
503.606	96.5
502.528	92.8
501.451	88.25
500.373	84.8
499.296	82.15
498.217	81.15
497.139	79.2
496.062	77.9
494.983	76.9
493.903	75.6
492.826	73.65
491.746	73.45
490.667	72.3
489.589	72.25
488.509	72.4
487.429	71.25
486.351	70.45
485.271	69.7
484.191	69.9
483.112	68.9
482.031	69.9
480.951	67.95
479.872	68.35
478.791	67.85
477.71	68.9
476.63	67.4
475.549	67.75
474.467	68.4
473.388	68.55
472.306	68.4
471.224	68
470.144	68.2
469.062	68.05
467.98	67.8
466.897	66.75
465.817	67.85
464.734	67.65
463.651	67.4
462.57	68.7
461.487	68.1
460.404	68.75
459.321	68
458.239	67.75
457.156	67.2
456.072	68.05
454.988	69.1
453.906	68.7
452.822	68.45
451.738	69.5
450.654	70.3
449.571	70.2
448.487	70.35
447.402	71.3
446.317	72.05
445.234	72.5
444.149	71.85
443.064	72
441.978	72.1
440.893	74.25
439.809	73.35
438.723	73.25
437.637	73.8
436.551	74.15
435.467	75.05
434.381	74.4
433.295	75.25
432.208	75.75
431.121	75.35
430.037	75.85
428.95	76.75
427.863	78.3
426.776	78.7
425.688	79.3
424.603	78.95
423.515	81.95
422.428	81.8
421.34	84
420.252	84.8
419.164	85.4
418.078	87.65
416.989	88.8
415.901	90.85
414.812	93
413.724	95.35
412.635	98.85
411.546	101.6
410.459	103
409.369	105.3
408.28	107.45
407.191	108.4
406.101	110.3
405.011	112.25
403.921	109.65
402.833	109.5
401.743	108.75
400.653	109.4
399.563	110.25
398.472	110.75
397.381	109.5
396.291	108.75
395.2	106.2
394.111	103.1
393.02	99.45
391.928	95.4
390.837	93.05
389.745	89.85
388.654	89.55
387.562	87.6
386.47	87.3
385.378	84.75
384.285	85.65
383.193	83.85
382.103	84.25
381.01	84.8
379.917	83.9
378.825	83.9
377.732	82.85
376.638	84.7
375.545	83.2
374.452	82.8
373.358	82.45
372.265	82.3
371.171	83
370.077	83.65
368.983	85
367.889	85
366.795	85.8
365.7	86.45
364.606	87.05
363.513	87.1
362.418	88.15
361.323	88.75
360.228	89.45
359.133	91.05
358.038	90.9
356.942	92.45
355.847	95.05
354.751	96.45
353.655	97.75
352.559	98.9
351.463	102.05
350.367	102.55
349.27	104.3
348.174	104.35
347.077	106.2
345.98	108.1
344.884	110.5
343.786	117.45
342.689	122
341.592	130.05
340.495	132.55
339.397	133.9
338.299	131.6
337.202	128.1
336.102	128.4
335.004	127.5
333.905	129.15
332.807	132.9
331.709	136.15
330.61	139.05
329.511	143.75
328.412	145.55
327.313	151.2
326.214	153.75
325.115	152.05
324.016	150.25
322.916	146.1
321.817	140.5
320.717	140.6
319.617	138.35
318.517	141.95
317.417	149.2
316.314	157.7
315.214	164.25
314.113	172.2
313.013	176.15
311.912	176.65
310.811	175.35
309.71	171.45
308.609	165.95
307.507	161.5
306.406	157.75
305.304	157
304.2	156.05
303.098	155.85
301.996	159.25
300.894	162.5
299.792	166
298.69	171.45
297.587	175.35
296.485	175.05
295.38	177
294.277	175.85
293.174	175.45
292.071	176.15
290.967	179.35
289.864	183
288.76	188.65
287.656	188.2
286.551	189.8
285.447	188
284.342	189.35
283.238	190
282.134	196.45
281.029	203.1
279.923	213.35
278.818	215.25
277.713	212.9
276.608	203
275.503	190
274.398	173.9
273.29	158.15
272.184	147.85
271.079	139.4
269.973	131.45
268.867	127.15
267.759	124.2
266.653	122.25
265.546	119.2
264.44	117.55
263.333	114.85
262.224	114.2
261.117	112.6
260.01	110.2
258.903	109.2
257.796	105.65
256.687	104.8
255.579	103.6
254.471	101.3
253.364	100.8
252.254	98.4
251.145	96.8
250.037	97.55
248.929	96.2
247.82	95.55
246.71	94.95
245.601	95.9
244.492	92.55
243.383	92
242.272	94.45
241.163	92.5
240.053	92.2
238.942	92.55
237.832	92.7
236.722	90.9
235.612	90.75
234.5	91.9
233.39	91.1
232.28	91.35
231.169	91.35
230.057	91.1
228.946	91.9
227.835	92.25
226.722	90.75
225.611	91.2
224.499	91.9
223.388	90.75
222.274	90.15
221.163	89.4
220.051	90.7
218.937	90.2
217.825	90.1
216.713	89.75
215.598	90.1
214.486	90.7
213.373	90.45
212.258	90.7
211.146	90.55
210.033	89.45
208.917	90
207.804	89.9
206.691	90.75
205.575	89.2
204.462	89.85
203.348	89.4
202.232	88.4
201.118	89.55
200.003	86.3
198.887	89.05
197.773	88.2
196.658	88
195.541	90.2
194.426	88.35
193.311	89.45
192.194	87.8
191.079	88.8
189.963	89.8
188.846	90.8
187.73	90.4
186.612	92.35
185.496	90.45
184.38	93.6
183.262	94.1
182.146	94.25
181.027	95.6
179.91	96.15
178.794	97.6
177.675	98.7
176.558	100
175.438	100.45
174.321	103.1
173.204	104.25
172.084	107.35
170.966	109.7
169.847	110.85
168.729	111.7
167.611	113.65
166.49	115
165.372	116.4
164.251	115.75
163.133	118.3
162.012	119
160.893	118.4
159.772	117.05
158.653	118.55
157.533	119.85
156.412	120.95
155.292	120.95
154.171	121.25
153.051	123.5
151.929	123.8
150.809	126.6
149.686	124.5
148.566	124.35
147.443	124.65
146.323	122
145.202	123.1
144.079	121.85
142.958	122.6
141.834	121
140.713	122.1
139.59	121.6
138.468	121.4
137.344	123.4
136.222	121.65
135.098	121.95
133.976	123.4
132.852	122.95
131.729	125.7
130.605	127.95
129.482	129.7
128.357	131.2
127.234	135.65
126.109	138.35
124.986	140.9
123.86	145.15
122.737	149.05
121.611	150.5
120.485	151.75
119.361	151.2
118.235	147.75
117.111	141.15
115.985	139.7
114.86	134.35
113.734	132.9
112.609	134.6
111.482	130.85
110.357	132.3
109.23	131.4
108.103	131.2
106.977	131.95
105.85	132.05
104.724	130.95
103.596	132.25
102.47	130.4
101.342	132.4
100.216	130.75
99.0873	133.75
97.9587	131.5
96.8322	134.75
95.7033	134.85
94.5764	135.45
93.4473	138.25
92.3181	138.9
91.1908	141.25
90.0613	141.4
88.9337	139.9
87.8039	142
86.674	143.65
85.546	145.35
84.4158	149.85
83.2876	150.65
82.1571	150
81.0265	151.7
79.8979	150.75
78.767	149.75
77.6381	152.35
76.5069	154.35
75.3756	152.75
74.2463	153.25
73.1147	154.35
71.983	154.45
70.8532	156.1
69.7213	157.25
68.5891	157.8
67.459	159.05
66.3266	160.3
65.1962	162.75
64.0635	161.65
62.9307	161.25
61.7999	159.55
60.6668	157
59.5336	150.85
58.4024	147.1
57.2689	138.8
56.1352	133.2
55.0036	127.75
53.8697	125.4
52.7356	121.1
51.6036	118.15
50.4693	115.65
49.3348	114
48.2002	110.05
47.0676	105.95
45.9328	105.95
44.7977	103.7
43.6647	105.05
42.5295	107.15
41.394	106
40.2606	107.2
39.1249	110.75
37.9891	111
36.8531	112.55
35.7192	113.05
34.5829	109.15
33.4465	104.8
32.3122	100.15
31.1755	92.65
30.0387	84.55
28.9018	76.2
27.7669	68.45
26.6297	61.2
25.4923	54.35
24.3548	48.85
23.2194	42.35
22.0816	34.3
20.9437	26.55
19.8057	19.45
18.6696	13.5
17.5313	10.1
16.3929	8.65
15.2543	8.15
14.1177	7.7
12.9788	8.1
11.8398	8.2
10.7007	9.2
9.56358	10.1
8.42416	12.1
7.28461	15.45];

dataPoint4 = [
1660.49	85.2
1659.55	85.9
1658.61	86.4
1657.67	86.8
1656.73	85.8
1655.79	85.6
1654.85	85.7
1653.91	86.4
1652.97	86
1652.03	85.65
1651.09	86.2
1650.15	87.6
1649.21	84.55
1648.27	85.7
1647.33	86.9
1646.39	86.5
1645.45	85.65
1644.51	85.55
1643.57	86.25
1642.63	86.9
1641.69	85.35
1640.75	86.75
1639.8	85.55
1638.86	87.5
1637.92	85.85
1636.98	85.2
1636.04	85.25
1635.1	86.95
1634.15	85.65
1633.21	86.4
1632.27	86.4
1631.33	86.65
1630.38	86.75
1629.44	87.15
1628.5	86.4
1627.55	87.35
1626.61	85.95
1625.67	87.15
1624.73	86.3
1623.78	86.95
1622.84	87.85
1621.9	87.8
1620.95	86.3
1620.01	86.9
1619.07	87.65
1618.12	87.55
1617.18	89.05
1616.23	87.35
1615.29	87.3
1614.34	87.5
1613.4	87.2
1612.46	87.9
1611.51	87.55
1610.57	87.75
1609.62	87
1608.68	87.3
1607.73	87.35
1606.78	86.7
1605.84	88.05
1604.9	88
1603.95	88.2
1603	88.2
1602.06	88.15
1601.11	88.8
1600.17	88.6
1599.22	88.9
1598.27	88.6
1597.33	88.7
1596.38	88.15
1595.43	89.3
1594.49	88.5
1593.54	88.65
1592.59	88.85
1591.65	87.9
1590.7	89.2
1589.75	88.45
1588.81	88.2
1587.86	88.7
1586.91	88.8
1585.96	87.95
1585.01	88.75
1584.07	88
1583.12	87.75
1582.17	88.95
1581.22	88.15
1580.27	88.4
1579.33	88.55
1578.38	87.75
1577.43	88.2
1576.48	88.5
1575.53	87.75
1574.58	87.9
1573.63	89.15
1572.68	88.65
1571.73	87.8
1570.78	87.9
1569.83	87.95
1568.89	87.95
1567.94	88.8
1566.99	87.9
1566.04	88.05
1565.08	87.55
1564.14	87.75
1563.18	87.8
1562.23	88.4
1561.28	88.7
1560.33	87.7
1559.38	87.8
1558.43	88.15
1557.48	87.75
1556.53	87.75
1555.58	86.3
1554.63	88.2
1553.68	87.8
1552.72	87.65
1551.77	87.05
1550.82	86.6
1549.87	87.45
1548.92	86.65
1547.96	87.65
1547.01	86.35
1546.06	87.15
1545.11	87.15
1544.15	87.75
1543.2	87.25
1542.25	87.9
1541.3	87.2
1540.34	85.65
1539.39	86.7
1538.44	86.9
1537.48	86.1
1536.53	85.95
1535.58	87.35
1534.62	86.6
1533.67	87.45
1532.72	86.5
1531.76	87.05
1530.81	86.25
1529.85	86.5
1528.9	85.9
1527.94	85.9
1526.99	84.8
1526.03	85.7
1525.08	85.7
1524.13	85
1523.17	85
1522.22	84.9
1521.26	85.1
1520.3	85.85
1519.35	86.45
1518.39	86.1
1517.44	85.5
1516.48	83.75
1515.53	85
1514.57	86.25
1513.61	84.55
1512.66	85.55
1511.7	85.3
1510.75	85.25
1509.79	85.1
1508.83	83.2
1507.87	85.15
1506.92	85.95
1505.96	84.35
1505	86.1
1504.05	85.9
1503.09	87.45
1502.13	85.8
1501.17	86.4
1500.22	87
1499.26	87
1498.3	89.8
1497.34	88.5
1496.39	89.15
1495.43	89.15
1494.47	91.35
1493.51	91.15
1492.55	91.9
1491.59	93.75
1490.63	93.7
1489.68	92.65
1488.72	95.35
1487.76	96.1
1486.8	96.6
1485.84	95.95
1484.88	96.95
1483.92	97.6
1482.96	99.3
1482	99.75
1481.04	100.05
1480.08	101.95
1479.12	103.2
1478.16	103.8
1477.2	104.4
1476.24	104.9
1475.28	106.2
1474.32	106.7
1473.36	106.35
1472.39	108.65
1471.43	111.15
1470.47	113.15
1469.51	113.65
1468.55	114.1
1467.59	115.65
1466.63	116.45
1465.67	117.6
1464.7	118.75
1463.74	119.1
1462.78	120.15
1461.82	121.85
1460.85	125
1459.89	127.35
1458.93	127.35
1457.97	127.45
1457	127.9
1456.04	129.1
1455.08	128.85
1454.11	125.5
1453.15	126.6
1452.19	126.25
1451.23	123.2
1450.26	122.9
1449.3	122.45
1448.33	120.25
1447.37	117.15
1446.41	115.75
1445.44	111.85
1444.48	110.35
1443.51	108.85
1442.55	106.45
1441.59	102.55
1440.62	101.6
1439.66	99.15
1438.69	97
1437.72	97.2
1436.76	96.5
1435.79	93.5
1434.83	94.05
1433.86	93.05
1432.9	92.75
1431.93	92.1
1430.97	91.9
1430	89.15
1429.03	90.75
1428.07	89.25
1427.1	89.5
1426.14	89.75
1425.17	87.85
1424.2	87.55
1423.24	88.35
1422.27	87.2
1421.3	87.2
1420.34	86.3
1419.37	86.4
1418.4	87.4
1417.43	86.25
1416.47	87.25
1415.5	87.1
1414.53	86.15
1413.56	87.95
1412.6	87.55
1411.63	88.1
1410.66	88.95
1409.69	88.75
1408.72	88.95
1407.75	87.95
1406.78	88.8
1405.82	88.35
1404.85	89.45
1403.88	87.65
1402.91	88.75
1401.94	89.6
1400.97	89.1
1400	89.3
1399.03	89.1
1398.06	89.05
1397.09	88.85
1396.12	87.75
1395.15	87.65
1394.18	86.25
1393.21	86.75
1392.24	85.7
1391.27	86.15
1390.3	85.4
1389.33	86.55
1388.36	86.9
1387.39	84.8
1386.42	87.6
1385.45	85.1
1384.47	86.8
1383.5	87.3
1382.53	85.95
1381.56	85.95
1380.59	86.1
1379.61	86.35
1378.64	86.2
1377.67	85.25
1376.7	86.15
1375.73	86
1374.75	85.4
1373.78	85.45
1372.81	85.85
1371.84	87.05
1370.86	86.55
1369.89	85.7
1368.92	87.35
1367.95	87.2
1366.97	88.85
1366	87.6
1365.02	87.95
1364.05	88.55
1363.08	90.25
1362.1	89.85
1361.13	91.75
1360.15	92.3
1359.18	93.05
1358.2	93.15
1357.23	95
1356.26	94.9
1355.28	93.25
1354.31	95.3
1353.33	95.75
1352.36	96.4
1351.38	95.1
1350.41	96.25
1349.43	96
1348.46	95.4
1347.48	95.05
1346.5	94.65
1345.53	94.55
1344.55	95.15
1343.58	94.65
1342.6	94
1341.62	94.4
1340.65	94.7
1339.67	95.6
1338.69	96.8
1337.72	97.1
1336.74	98.85
1335.76	99.9
1334.79	101.3
1333.81	102.15
1332.83	102.55
1331.85	101.55
1330.88	100.45
1329.9	101.75
1328.92	100.05
1327.94	100.05
1326.97	99.05
1325.99	96.75
1325.01	97.55
1324.03	95.95
1323.05	94.25
1322.07	94.5
1321.09	94.85
1320.11	92.1
1319.14	92.25
1318.16	91.05
1317.18	92.05
1316.2	92
1315.22	91.55
1314.24	89.75
1313.26	90.15
1312.28	88.55
1311.3	89.05
1310.32	89.1
1309.34	87.3
1308.36	88.65
1307.38	86.75
1306.4	87.8
1305.42	86.15
1304.44	86.55
1303.46	86.8
1302.48	86.4
1301.49	87.25
1300.51	86.45
1299.53	85.45
1298.55	85.9
1297.57	83.9
1296.59	84.05
1295.6	84.15
1294.62	84.9
1293.64	82.75
1292.66	83.55
1291.68	82.55
1290.69	82.1
1289.71	81.4
1288.73	81.85
1287.75	81.05
1286.76	79.75
1285.78	80.15
1284.8	79
1283.81	79.8
1282.83	80.7
1281.85	79.25
1280.86	77.6
1279.88	79.3
1278.9	80.7
1277.91	80.05
1276.93	78.3
1275.94	80
1274.96	79.55
1273.98	80.15
1272.99	80.3
1272.01	79.6
1271.02	79.85
1270.04	79.9
1269.05	80.55
1268.07	80.1
1267.08	82.1
1266.1	81.2
1265.11	84.05
1264.13	82.65
1263.14	83.35
1262.15	84.15
1261.17	83.55
1260.18	83.1
1259.2	83.15
1258.21	84
1257.22	85.95
1256.24	85
1255.25	84.4
1254.26	85.2
1253.28	87
1252.29	88.05
1251.3	87.65
1250.32	91.6
1249.33	97.1
1248.34	103.25
1247.35	113.75
1246.37	127.15
1245.38	141.85
1244.39	156.25
1243.4	163.95
1242.41	167.95
1241.43	164.85
1240.44	155.2
1239.45	145.5
1238.46	134.15
1237.47	122.3
1236.48	113.85
1235.5	106.3
1234.51	101.65
1233.52	98.9
1232.53	93.55
1231.54	92.5
1230.55	91.15
1229.56	89.75
1228.57	87.6
1227.58	89.25
1226.59	86.7
1225.6	87.05
1224.61	86.7
1223.62	86.15
1222.63	84.9
1221.64	85.45
1220.65	85.1
1219.66	85.9
1218.67	86.4
1217.68	85.25
1216.68	85.85
1215.69	86.35
1214.7	86.75
1213.71	86.3
1212.72	85.75
1211.73	86.15
1210.74	85.75
1209.74	85.95
1208.75	85.15
1207.76	85.6
1206.77	86.35
1205.77	84.55
1204.78	84.95
1203.79	85.65
1202.8	85.9
1201.8	85.05
1200.81	85.25
1199.82	85.7
1198.82	85.4
1197.83	84.35
1196.84	85.8
1195.84	84.05
1194.85	84.55
1193.86	86.65
1192.86	84.5
1191.87	86.1
1190.87	82.8
1189.88	84.8
1188.88	84.7
1187.89	85.1
1186.9	84.25
1185.9	83.1
1184.91	84.7
1183.91	84.05
1182.91	82.95
1181.92	84.2
1180.93	84.95
1179.93	84.45
1178.93	83.6
1177.94	82.6
1176.94	83.75
1175.95	83.7
1174.95	82.65
1173.95	82.25
1172.96	82.9
1171.96	82.25
1170.97	83.1
1169.97	82.7
1168.97	82.5
1167.97	80.55
1166.98	80.1
1165.98	81.15
1164.98	80.9
1163.98	80.65
1162.99	81.15
1161.99	81.05
1160.99	81.9
1159.99	81.55
1159	81.3
1158	81.6
1157	81.75
1156	82.75
1155	82.15
1154.01	82.65
1153.01	83.2
1152.01	84.85
1151.01	86.15
1150.01	87.9
1149.01	91.75
1148.01	94.2
1147.01	95.5
1146.01	98.05
1145.01	103.5
1144.01	104.15
1143.01	107.85
1142.01	111.15
1141.01	113.85
1140.01	116.8
1139.01	119.85
1138.01	119.45
1137.01	121.55
1136.01	120.3
1135.01	117.6
1134.01	115.6
1133.01	112.4
1132	109.8
1131	105.2
1130	100.95
1129	98.55
1128	96.3
1127	93.55
1125.99	90.9
1124.99	88.65
1123.99	86.95
1122.99	88.45
1121.99	86.4
1120.98	84
1119.98	84.2
1118.98	84.7
1117.98	84.6
1116.97	83.55
1115.97	83.15
1114.97	82.1
1113.96	83.75
1112.96	82.9
1111.96	82.8
1110.95	82.7
1109.95	82.55
1108.94	82.95
1107.94	82.7
1106.94	82.9
1105.93	82.15
1104.93	82.25
1103.92	81.4
1102.92	79.55
1101.91	79.4
1100.91	78.4
1099.9	76.4
1098.9	76.3
1097.89	76.9
1096.89	77.2
1095.88	75.55
1094.88	75.15
1093.87	74.85
1092.86	75.25
1091.86	74.75
1090.85	75.9
1089.85	75.95
1088.84	75.95
1087.83	76.9
1086.83	75.55
1085.82	77
1084.81	78.45
1083.81	78.2
1082.8	78.2
1081.79	78.05
1080.78	78.2
1079.78	79.45
1078.77	78.5
1077.76	78.05
1076.75	78.6
1075.75	78.7
1074.74	78.45
1073.73	79.85
1072.72	79.25
1071.71	80.85
1070.7	81.25
1069.7	80.95
1068.69	80.7
1067.68	79.25
1066.67	80.05
1065.66	78.75
1064.65	78.7
1063.64	78.6
1062.63	78.55
1061.62	76.65
1060.61	76.75
1059.6	76.4
1058.59	76.25
1057.58	75.6
1056.57	74.6
1055.56	75
1054.55	75.15
1053.54	76.05
1052.53	75.7
1051.52	74.7
1050.51	75
1049.5	75.65
1048.49	75.65
1047.47	75.35
1046.46	76.7
1045.45	76.2
1044.44	76.05
1043.43	77.1
1042.42	75.9
1041.4	76.25
1040.39	76.9
1039.38	78.15
1038.37	78.95
1037.35	77.25
1036.34	78.6
1035.33	79.0833
1034.32	80.7667
1033.3	81
1032.29	82.3333
1031.28	81.4167
1030.26	82.65
1029.25	84.45
1028.24	83.35
1027.22	85.6
1026.21	85
1025.19	85.45
1024.18	84.9
1023.17	85.35
1022.15	84.45
1021.14	85.3
1020.12	85.05
1019.11	85.5
1018.09	87.05
1017.08	86.15
1016.06	87.1
1015.05	87.15
1014.03	87.65
1013.02	89.4
1012	88.7
1010.99	90.4
1009.97	90.45
1008.95	90.55
1007.94	91.1
1006.92	90.5
1005.91	91.2
1004.89	92.8
1003.87	92.35
1002.86	93
1001.84	92.35
1000.82	93.15
999.806	94.4
998.788	94.85
997.771	95.05
996.754	97.2
995.737	96.35
994.718	97.75
993.701	98.15
992.683	99.45
991.664	102.8
990.646	103.65
989.629	106
988.611	106.95
987.591	108.6
986.573	111.5
985.555	111.4
984.535	114
983.516	111.55
982.498	114.95
981.477	114
980.458	115.25
979.439	114.8
978.419	115.1
977.399	114.45
976.38	114.8
975.359	115.9
974.34	113.8
973.32	113.65
972.298	114.1
971.279	113.5
970.259	115.25
969.237	116.3
968.216	115.1
967.196	114.45
966.174	114.3
965.153	115.35
964.133	114.6
963.11	115.9
962.089	117.4
961.068	117.25
960.045	118.45
959.024	118.15
958.001	118.9
956.979	118.65
955.958	118.9
954.934	120.8
953.912	119.95
952.889	119.7
951.867	119.65
950.844	117.7
949.82	118.5
948.798	117.3
947.773	117.9
946.751	117.9
945.728	117.7
944.703	116.85
943.68	116.35
942.655	117.75
941.632	114.8
940.607	113.65
939.583	111
938.56	108.05
937.534	106.1
936.51	103.25
935.485	100.75
934.461	97.15
933.435	95.75
932.41	92.2
931.384	90.15
930.36	88.4
929.335	87.4
928.308	84
927.283	83.4
926.257	81.2
925.231	80.95
924.204	80.75
923.179	81.15
922.152	80.2
921.126	78.75
920.098	79.1
919.073	79.25
918.045	78.8
917.019	78.8
915.991	77.6
914.964	78
913.936	78.45
912.91	77.2
911.881	78
910.854	77.55
909.826	78.05
908.799	77.3
907.77	77.25
906.742	77.25
905.713	76.4
904.684	77.55
903.656	77.35
902.627	77.5
901.599	75.55
900.569	77
899.541	77.2
898.511	76.75
897.483	77.15
896.452	77.2
895.422	78.75
894.393	77.6
893.362	78.85
892.334	79.4
891.303	81.25
890.274	81.6
889.242	83.75
888.211	87.2
887.182	88.95
886.15	89.15
885.12	92.65
884.089	92.85
883.057	93
882.027	94.35
880.995	92.75
879.964	93.3
878.932	91.3
877.9	91.4
876.869	90.4
875.836	90.8
874.805	90.05
873.772	91.9
872.739	91.05
871.708	90.8
870.675	88.85
869.641	88.4
868.61	87.8
867.576	85.3
866.544	84.2
865.51	83.4
864.476	82.45
863.444	81.2
862.41	79.7
861.376	79.9
860.343	80
859.308	80
858.274	78.45
857.241	75.75
856.206	78.05
855.171	78.3
854.138	77.45
853.102	78.4
852.067	77.1
851.031	78.1
849.997	77.2
848.962	77.55
847.926	77.85
846.892	77.95
845.856	77.3
844.819	78.5
843.785	77.55
842.748	78.85
841.712	79.65
840.675	81
839.64	80.4
838.603	81.7
837.566	82.7
836.529	81.1
835.493	81.95
834.456	83.05
833.418	81.05
832.382	82.1
831.344	81.8
830.307	81.55
829.268	81.45
828.232	81.45
827.194	80.85
826.155	82.4
825.117	81.75
824.078	80.7
823.041	82.6
822.002	81.6
820.963	82.6
819.924	82.7
818.887	82.35
817.847	82.1
816.808	82.7
815.768	82.5
814.729	81.3
813.691	83
812.651	81.5
811.611	81.55
810.57	80.35
809.53	80.8
808.491	81.75
807.451	80.9
806.41	80.3
805.369	80.15
804.328	80.25
803.289	81.55
802.248	80.55
801.207	81.2
800.165	82.45
799.124	81.15
798.082	80.25
797.042	81.5
796	82.2
794.958	82.85
793.916	80.85
792.874	82.5
791.831	82
790.789	81.6
789.748	82.35
788.705	80.3
787.662	77.85
786.619	78.45
785.576	77.65
784.533	77.1
783.49	76.5
782.446	75.95
781.404	76.7
780.361	75.95
779.317	75.25
778.273	75.6
777.229	74.15
776.184	73.8
775.14	74.25
774.096	74.75
773.051	74.85
772.006	75.05
770.964	74.8
769.919	76.1
768.873	76.2
767.828	76.05
766.783	78.15
765.737	78.35
764.692	80.3
763.646	80.7
762.6	79.15
761.555	80.05
760.508	80.35
759.462	79.6
758.416	79.25
757.37	80.05
756.323	80.45
755.278	80.65
754.232	81.75
753.185	84.5
752.138	86.25
751.091	91.25
750.043	96.1
748.996	103
747.948	116
746.901	132.3
745.853	156.35
744.805	189.8
743.757	231.85
742.709	270.75
741.661	294.05
740.613	289.4
739.564	256.1
738.516	214.1
737.467	173.6
736.418	142.65
735.369	121.9
734.32	104.75
733.271	95.45
732.221	90.75
731.172	85.75
730.122	82.15
729.073	81.2
728.023	78.55
726.973	78.8
725.923	75.85
724.873	75.5
723.82	75.7
722.77	75.6
721.719	75.95
720.669	76.05
719.618	75.1
718.567	74.75
717.516	74
716.465	75.35
715.414	75
714.362	75
713.311	74.65
712.259	75.45
711.207	75.8
710.155	75.5
709.103	75.5
708.049	74.7
706.997	74.8
705.944	75.55
704.892	75.55
703.839	75.2
702.787	74.6
701.734	73.9
700.681	75.05
699.628	74.9
698.574	75.85
697.519	76.8
696.466	76.45
695.412	78.1
694.358	78.05
693.304	79.75
692.25	81.8
691.196	83.8
690.142	86.1
689.086	89.75
688.031	95.4
686.977	100.2
685.922	107.8
684.867	115.05
683.812	121.7
682.757	127.7
681.7	129.55
680.644	130
679.589	128.05
678.533	122.4
677.478	114.85
676.422	109.25
675.364	104.15
674.308	98.2
673.252	93.45
672.195	92.3
671.139	89.7
670.082	86.5
669.024	86
667.967	85.35
666.91	84.85
665.853	83.8
664.796	81.8
663.736	83.85
662.679	82.1
661.621	82.05
660.564	83.45
659.504	82.5
658.446	83.1
657.388	82.45
656.33	85.25
655.272	84.5
654.211	83.05
653.153	84.9
652.094	84.85
651.035	83.75
649.974	82.95
648.915	83.55
647.856	85.45
646.797	84.55
645.735	84.15
644.676	85.1
643.616	85.9
642.556	84.75
641.495	87.75
640.435	86
639.374	85.7
638.314	85.95
637.252	85.95
636.191	86
635.131	86.4
634.068	86.65
633.007	86.95
631.946	88
630.885	88.9
629.821	88.25
628.76	88.85
627.699	89.85
626.635	90.95
625.573	91.15
624.511	91.65
623.447	91.6
622.385	93.4
621.323	94.4
620.26	94.5
619.196	97.2
618.133	97.75
617.071	97.7
616.006	96.4
614.943	94.4
613.88	92.4
612.814	90.2
611.751	88.85
610.687	88.3
609.622	86.9
608.558	86.55
607.492	86.55
606.428	86.3
605.364	86.1
604.298	86.6
603.233	86.95
602.169	88.25
601.102	89.9
600.038	89.6
598.973	90
597.906	90.6
596.841	92.55
595.773	94.15
594.708	95.6
593.642	95.8
592.575	98
591.509	99.1
590.441	99.15
589.375	100
588.309	99.3
587.241	97.65
586.174	98
585.106	96.75
584.039	96.45
582.973	98
581.904	97.8
580.837	98.5
579.768	98.55
578.7	100.85
577.631	102.2
576.563	104.45
575.496	107.85
574.426	110.8
573.358	116.1
572.288	117.2
571.22	119.1
570.15	118.85
569.081	117.5
568.011	117.1
566.942	115.45
565.874	114.6
564.803	114.35
563.734	116
562.662	117.35
561.593	120.4
560.522	119.55
559.452	123.35
558.381	126.7
557.311	127.05
556.239	130
555.169	132.2
554.097	132.9
553.027	136
551.954	137.75
550.884	139.15
549.811	142.25
548.74	139.7
547.667	139.3
546.596	142.45
545.523	141.55
544.452	142.5
543.379	144.65
542.307	147.9
541.233	151.25
540.162	158.15
539.088	162.4
538.016	168.35
536.941	176.25
535.869	186.2
534.795	194.25
533.72	203.55
532.648	215.15
531.573	230.85
530.5	247.15
529.425	268
528.352	292.85
527.276	323.2
526.203	365.2
525.127	412.45
524.052	467.35
522.978	530.65
521.902	595.8
520.828	633
519.752	646.6
518.677	611.7
517.601	549.2
516.524	477.75
515.45	401.2
514.373	335.85
513.298	276.8
512.221	230.2
511.144	194.05
510.068	166.85
508.991	146.05
507.915	128.95
506.838	117.3
505.76	106.95
504.684	97.95
503.606	91.45
502.528	86.05
501.451	81.9
500.373	78.1
499.296	74.5
498.217	74.25
497.139	71.5
496.062	70.85
494.983	68.75
493.903	68.1
492.826	67.4
491.746	66.3
490.667	66.05
489.589	65.15
488.509	64.5
487.429	62.8
486.351	63.45
485.271	63.3
484.191	61.85
483.112	62.1
482.031	62.2
480.951	61.15
479.872	61.15
478.791	60.25
477.71	60.45
476.63	60.4
475.549	60.3
474.467	60.05
473.388	60.35
472.306	59.75
471.224	60.7
470.144	61.45
469.062	60.55
467.98	60.65
466.897	61.05
465.817	60
464.734	59.05
463.651	60.45
462.57	59.95
461.487	61.1
460.404	60.5
459.321	60.75
458.239	60.85
457.156	60.95
456.072	61.65
454.988	61.3
453.906	62.4
452.822	61.9
451.738	62.25
450.654	62.5
449.571	61.7
448.487	63.1
447.402	64
446.317	64.65
445.234	64.35
444.149	65.15
443.064	65.4
441.978	65.2
440.893	65.65
439.809	66.25
438.723	67.1
437.637	67.5
436.551	66.65
435.467	67.9
434.381	69
433.295	69.4
432.208	68.9
431.121	69.75
430.037	69.8
428.95	70.95
427.863	70.05
426.776	71.8
425.688	72.45
424.603	73.05
423.515	73.5
422.428	74.2
421.34	75.6
420.252	77.5
419.164	78.2
418.078	78.75
416.989	81.15
415.901	82.7
414.812	84.25
413.724	87.15
412.635	87.55
411.546	91
410.459	92.9
409.369	95.05
408.28	96.85
407.191	99.45
406.101	99.35
405.011	99.7
403.921	99.6
402.833	99.95
401.743	99.2
400.653	100.6
399.563	100.45
398.472	100.3
397.381	99.8
396.291	98.45
395.2	96.65
394.111	92.65
393.02	89.85
391.928	88.2
390.837	84.35
389.745	82.55
388.654	81.15
387.562	79.6
386.47	79.45
385.378	79.95
384.285	78.65
383.193	78.55
382.103	79.1
381.01	78.85
379.917	77.45
378.825	76.65
377.732	76.7
376.638	77.4
375.545	77.05
374.452	78.2
373.358	77.45
372.265	78.15
371.171	77.8
370.077	78.35
368.983	79
367.889	79.85
366.795	80.3
365.7	78.8
364.606	81.75
363.513	81.6
362.418	80.6
361.323	82.75
360.228	82.95
359.133	84.25
358.038	84.25
356.942	87.4
355.847	87.65
354.751	89.05
353.655	90.75
352.559	92.8
351.463	93.75
350.367	94.4
349.27	96.6
348.174	96.3
347.077	98.65
345.98	102.1
344.884	104.65
343.786	106.55
342.689	114.4
341.592	119.1
340.495	122
339.397	122.6
338.299	121.25
337.202	118.8
336.102	118
335.004	119.5
333.905	119.95
332.807	123.75
331.709	126.45
330.61	129.8
329.511	134.65
328.412	138.05
327.313	141.1
326.214	142.85
325.115	143.8
324.016	140.75
322.916	137.2
321.817	134.2
320.717	132.05
319.617	135.15
318.517	136.25
317.417	144.4
316.314	152
315.214	158.35
314.113	163.1
313.013	167.2
311.912	169.2
310.811	166.25
309.71	165.2
308.609	160.7
307.507	158.15
306.406	156.95
305.304	154.75
304.2	155.45
303.098	156.2
301.996	160.45
300.894	161.95
299.792	168.25
298.69	172.5
297.587	175.4
296.485	177.7
295.38	177.2
294.277	174.9
293.174	176.3
292.071	176.65
290.967	178.85
289.864	179.15
288.76	180.2
287.656	182.9
286.551	181.45
285.447	179.3
284.342	177.1
283.238	177.55
282.134	180.6
281.029	189.95
279.923	194.8
278.818	196.25
277.713	194.95
276.608	185.45
275.503	172.9
274.398	161.25
273.29	149.2
272.184	138.35
271.079	132.45
269.973	126
268.867	123.05
267.759	120.1
266.653	118.7
265.546	114.6
264.44	113.95
263.333	113.65
262.224	108.65
261.117	107.25
260.01	104.3
258.903	102.95
257.796	100.55
256.687	97.6
255.579	97.55
254.471	96.05
253.364	94.6
252.254	92.7
251.145	91.6
250.037	90.55
248.929	90.8
247.82	89.35
246.71	89.55
245.601	88.9
244.492	87.9
243.383	87.85
242.272	87.05
241.163	86.25
240.053	86.7
238.942	86
237.832	87.35
236.722	85.5
235.612	85.05
234.5	85.8
233.39	86.35
232.28	85.5
231.169	85.7
230.057	84.15
228.946	86.5
227.835	84.75
226.722	86.15
225.611	85.75
224.499	83.9
223.388	82.35
222.274	83.1
221.163	82.6
220.051	82.25
218.937	82.25
217.825	81.95
216.713	81.5
215.598	83.25
214.486	81.75
213.373	83.7
212.258	83.95
211.146	83
210.033	82.1
208.917	82.65
207.804	82
206.691	83
205.575	81.9
204.462	82.2
203.348	82
202.232	81.15
201.118	80.75
200.003	83.25
198.887	81
197.773	81.2
196.658	81.05
195.541	82.25
194.426	82.5
193.311	83.05
192.194	83.1
191.079	82.3
189.963	83.35
188.846	83.65
187.73	84.85
186.612	84.3
185.496	85.45
184.38	85.95
183.262	85.75
182.146	86.45
181.027	88.55
179.91	89.25
178.794	91.3
177.675	91.4
176.558	91.55
175.438	94.25
174.321	95.75
173.204	97.75
172.084	100.7
170.966	101.75
169.847	102.85
168.729	105.9
167.611	107.4
166.49	109.45
165.372	110.85
164.251	111.9
163.133	113.55
162.012	113.75
160.893	114.9
159.772	115.05
158.653	115.6
157.533	117.25
156.412	119.1
155.292	119.3
154.171	119.45
153.051	120.6
151.929	120.9
150.809	120.5
149.686	119.3
148.566	119.15
147.443	118.25
146.323	116.95
145.202	117
144.079	114.7
142.958	113.8
141.834	114.5
140.713	114.5
139.59	112.9
138.468	112.2
137.344	113.75
136.222	113.05
135.098	113.35
133.976	114.7
132.852	115.3
131.729	115.4
130.605	118.85
129.482	118.4
128.357	121.95
127.234	123.75
126.109	126.25
124.986	128.6
123.86	133.45
122.737	138.1
121.611	138.35
120.485	138.35
119.361	138.2
118.235	134.55
117.111	130.95
115.985	128.45
114.86	125.3
113.734	124.6
112.609	122.25
111.482	122.9
110.357	122.4
109.23	122
108.103	123.15
106.977	123.15
105.85	123.2
104.724	121.95
103.596	123.35
102.47	121.95
101.342	123.1
100.216	122.5
99.0873	123.85
97.9587	123
96.8322	125.3
95.7033	124.65
94.5764	128.4
93.4473	127.6
92.3181	128.3
91.1908	131.55
90.0613	130.1
88.9337	132.75
87.8039	133.3
86.674	135.85
85.546	136.2
84.4158	140.4
83.2876	142.45
82.1571	140.6
81.0265	141.15
79.8979	142.3
78.767	141.7
77.6381	142.9
76.5069	144.65
75.3756	144.95
74.2463	144.7
73.1147	145.5
71.983	146.75
70.8532	147.85
69.7213	146.4
68.5891	150.45
67.459	149.4
66.3266	152.4
65.1962	151.45
64.0635	152.25
62.9307	150.9
61.7999	151.2
60.6668	146.35
59.5336	143.25
58.4024	136.8
57.2689	130.05
56.1352	124.4
55.0036	119.25
53.8697	116.25
52.7356	112.85
51.6036	108.25
50.4693	108.8
49.3348	104.25
48.2002	101.6
47.0676	97.6
45.9328	97.75
44.7977	96.1
43.6647	97
42.5295	96.65
41.394	97.85
40.2606	99
39.1249	100.8
37.9891	101.5
36.8531	101.9
35.7192	102.45
34.5829	99.25
33.4465	96.25
32.3122	89.95
31.1755	84.7
30.0387	76.95
28.9018	69.8
27.7669	62.05
26.6297	54.75
25.4923	50.7
24.3548	43.7
23.2194	39.8
22.0816	32.35
20.9437	24.85
19.8057	19.1
18.6696	13.7
17.5313	10.85
16.3929	9.25
15.2543	8.35
14.1177	8.45
12.9788	7.85
11.8398	8.5
10.7007	10
9.56358	10.8
8.42416	13.15
7.28461	16.4];

backgroundInterp = pchip(dataBackground(:,1),dataBackground(:,2),dataPoint4(:,1));

backgroundSubtracted = abs(dataPoint4(:,2)-1.05*backgroundInterp);

figure;
plot(dataPoint4(:,1),backgroundInterp,dataPoint4(:,1),dataPoint4(:,2));
title('Raw Signals for Bias and Unbiased');
xlabel('Raman Shift (cm^{-1})'); ylabel('Intensity (Arbitrary Units)');
legend('V_{g} = 0','V_{g} = 0.4');
figure;
plot(dataPoint4(:,1),backgroundSubtracted);
title('Difference of Raman spectra for V_{g} = 0.4');
xlabel('Raman Shift (cm^{-1})'); ylabel('Intensity (Arbitrary Units)');
